Winding Currents under Load 
Air-Gap Position (elec. degrees)
Current (A)
0	-74.5317
1	-73.7607
2	-72.964
3	-72.1402
4	-71.2885
5	-70.4081
6	-69.499
7	-68.5611
8	-67.5948
9	-66.6009
10	-65.5802
11	-64.5341
12	-63.4641
13	-62.3718
14	-61.2592
15	-60.1282
16	-58.9804
17	-57.8174
18	-56.6401
19	-55.4492
20	-54.2452
21	-53.0283
22	-51.7991
23	-50.5579
24	-49.3053
25	-48.0418
26	-46.7674
27	-45.4822
28	-44.1854
29	-42.8762
30	-41.5538
31	-40.2171
32	-38.8652
33	-37.4977
34	-36.1141
35	-34.7143
36	-33.2985
37	-31.8671
38	-30.4207
39	-28.96
40	-27.486
41	-25.9999
42	-24.5032
43	-22.9972
44	-21.4836
45	-19.9641
46	-18.4401
47	-16.913
48	-15.3838
49	-13.8533
50	-12.3221
51	-10.7908
52	-9.25999
53	-7.73032
54	-6.20246
55	-4.67701
56	-3.15439
57	-1.63477
58	-0.118082
59	1.39599
60	2.90785
61	4.41792
62	5.92653
63	7.43391
64	8.94014
65	10.4452
66	11.9488
67	13.4508
68	14.9509
69	16.4484
70	17.9431
71	19.4343
72	20.9214
73	22.404
74	23.8814
75	25.3529
76	26.8179
77	28.2758
78	29.7259
79	31.1675
80	32.6
81	34.0227
82	35.435
83	36.8362
84	38.2257
85	39.6028
86	40.967
87	42.3175
88	43.6539
89	44.9756
90	46.2819
91	47.5725
92	48.8467
93	50.1042
94	51.3446
95	52.5674
96	53.7724
97	54.9594
98	56.1283
99	57.2789
100	58.4114
101	59.526
102	60.623
103	61.7029
104	62.7662
105	63.8134
106	64.8448
107	65.8607
108	66.8608
109	67.8448
110	68.8121
111	69.7622
112	70.6946
113	71.6086
114	72.5039
115	73.3799
116	74.2359
117	75.0711
118	75.8843
119	76.6743
120	77.4395
121	78.1787
122	78.8906
123	79.5742
124	80.2287
125	80.8534
126	81.4479
127	82.012
128	82.5457
129	83.0494
130	83.5234
131	83.9685
132	84.3856
133	84.7759
134	85.1407
135	85.4811
136	85.7984
137	86.0932
138	86.366
139	86.6168
140	86.8452
141	87.0511
142	87.2342
143	87.3942
144	87.5311
145	87.6447
146	87.7345
147	87.7998
148	87.8394
149	87.8519
150	87.8358
151	87.7896
152	87.712
153	87.602
154	87.4587
155	87.2818
156	87.071
157	86.8266
158	86.549
159	86.2389
160	85.8974
161	85.526
162	85.1262
163	84.7002
164	84.2499
165	83.7776
166	83.285
167	82.7737
168	82.2446
169	81.6981
170	81.1342
171	80.5531
172	79.9546
173	79.339
174	78.7064
175	78.0569
176	77.3904
177	76.706
178	76.0025
179	75.2783
180	74.5317
181	73.7608
182	72.9641
183	72.1403
184	71.2886
185	70.4082
186	69.4991
187	68.5612
188	67.5949
189	66.601
190	65.5803
191	64.5342
192	63.4642
193	62.3719
194	61.2593
195	60.1283
196	58.9805
197	57.8175
198	56.6401
199	55.4493
200	54.2453
201	53.0284
202	51.7992
203	50.558
204	49.3054
205	48.0419
206	46.7675
207	45.4822
208	44.1855
209	42.8763
210	41.5539
211	40.2171
212	38.8653
213	37.4978
214	36.1142
215	34.7144
216	33.2986
217	31.8672
218	30.4208
219	28.96
220	27.4861
221	26
222	24.5032
223	22.9973
224	21.4837
225	19.9642
226	18.4402
227	16.9131
228	15.3839
229	13.8533
230	12.3222
231	10.7909
232	9.26005
233	7.73039
234	6.20252
235	4.67707
236	3.15445
237	1.63484
238	0.118142
239	-1.39593
240	-2.90779
241	-4.41786
242	-5.92647
243	-7.43385
244	-8.94009
245	-10.4451
246	-11.9488
247	-13.4508
248	-14.9508
249	-16.4484
250	-17.943
251	-19.4342
252	-20.9214
253	-22.404
254	-23.8813
255	-25.3528
256	-26.8179
257	-28.2758
258	-29.7258
259	-31.1675
260	-32.6
261	-34.0227
262	-35.435
263	-36.8362
264	-38.2257
265	-39.6028
266	-40.9669
267	-42.3175
268	-43.6539
269	-44.9755
270	-46.2819
271	-47.5724
272	-48.8467
273	-50.1042
274	-51.3445
275	-52.5674
276	-53.7724
277	-54.9594
278	-56.1282
279	-57.2789
280	-58.4114
281	-59.526
282	-60.623
283	-61.7029
284	-62.7662
285	-63.8134
286	-64.8448
287	-65.8606
288	-66.8607
289	-67.8447
290	-68.8121
291	-69.7622
292	-70.6946
293	-71.6086
294	-72.5039
295	-73.3799
296	-74.2359
297	-75.0711
298	-75.8843
299	-76.6742
300	-77.4395
301	-78.1786
302	-78.8906
303	-79.5742
304	-80.2286
305	-80.8533
306	-81.4478
307	-82.012
308	-82.5457
309	-83.0493
310	-83.5233
311	-83.9684
312	-84.3856
313	-84.7759
314	-85.1406
315	-85.4811
316	-85.7984
317	-86.0932
318	-86.366
319	-86.6167
320	-86.8452
321	-87.0511
322	-87.2342
323	-87.3942
324	-87.5311
325	-87.6447
326	-87.7345
327	-87.7997
328	-87.8393
329	-87.8519
330	-87.8358
331	-87.7896
332	-87.712
333	-87.6019
334	-87.4587
335	-87.2818
336	-87.071
337	-86.8266
338	-86.549
339	-86.2389
340	-85.8974
341	-85.526
342	-85.1262
343	-84.7002
344	-84.2499
345	-83.7776
346	-83.285
347	-82.7737
348	-82.2446
349	-81.6981
350	-81.1342
351	-80.5531
352	-79.9546
353	-79.339
354	-78.7064
355	-78.0569
356	-77.3904
357	-76.7059
358	-76.0025
359	-75.2783
360	-74.5317
Phase Current ia
0	-2.9078
1	-4.41789
2	-5.92651
3	-7.43389
4	-8.94012
5	-10.4452
6	-11.9488
7	-13.4508
8	-14.9508
9	-16.4484
10	-17.943
11	-19.4342
12	-20.9214
13	-22.404
14	-23.8814
15	-25.3529
16	-26.8179
17	-28.2758
18	-29.7259
19	-31.1675
20	-32.6
21	-34.0227
22	-35.435
23	-36.8362
24	-38.2257
25	-39.6028
26	-40.967
27	-42.3175
28	-43.6539
29	-44.9756
30	-46.2819
31	-47.5725
32	-48.8467
33	-50.1042
34	-51.3446
35	-52.5674
36	-53.7724
37	-54.9594
38	-56.1283
39	-57.2789
40	-58.4114
41	-59.526
42	-60.623
43	-61.7029
44	-62.7662
45	-63.8134
46	-64.8448
47	-65.8606
48	-66.8607
49	-67.8447
50	-68.8121
51	-69.7622
52	-70.6946
53	-71.6086
54	-72.5039
55	-73.3799
56	-74.2359
57	-75.0711
58	-75.8843
59	-76.6742
60	-77.4395
61	-78.1787
62	-78.8906
63	-79.5742
64	-80.2287
65	-80.8534
66	-81.4479
67	-82.012
68	-82.5457
69	-83.0494
70	-83.5234
71	-83.9684
72	-84.3856
73	-84.7759
74	-85.1406
75	-85.4811
76	-85.7984
77	-86.0932
78	-86.366
79	-86.6167
80	-86.8452
81	-87.0511
82	-87.2342
83	-87.3942
84	-87.5311
85	-87.6447
86	-87.7345
87	-87.7998
88	-87.8394
89	-87.8519
90	-87.8358
91	-87.7896
92	-87.712
93	-87.602
94	-87.4587
95	-87.2818
96	-87.071
97	-86.8266
98	-86.549
99	-86.2389
100	-85.8974
101	-85.526
102	-85.1262
103	-84.7002
104	-84.2499
105	-83.7776
106	-83.285
107	-82.7737
108	-82.2446
109	-81.6981
110	-81.1342
111	-80.5531
112	-79.9546
113	-79.339
114	-78.7064
115	-78.0569
116	-77.3904
117	-76.706
118	-76.0025
119	-75.2783
120	-74.5317
121	-73.7608
122	-72.9641
123	-72.1403
124	-71.2886
125	-70.4082
126	-69.4991
127	-68.5612
128	-67.5949
129	-66.601
130	-65.5803
131	-64.5342
132	-63.4642
133	-62.3719
134	-61.2593
135	-60.1283
136	-58.9805
137	-57.8174
138	-56.6401
139	-55.4493
140	-54.2452
141	-53.0284
142	-51.7992
143	-50.558
144	-49.3054
145	-48.0419
146	-46.7675
147	-45.4822
148	-44.1855
149	-42.8763
150	-41.5539
151	-40.2171
152	-38.8653
153	-37.4978
154	-36.1142
155	-34.7144
156	-33.2986
157	-31.8672
158	-30.4208
159	-28.96
160	-27.4861
161	-26
162	-24.5032
163	-22.9973
164	-21.4837
165	-19.9642
166	-18.4402
167	-16.9131
168	-15.3839
169	-13.8533
170	-12.3222
171	-10.7909
172	-9.26005
173	-7.73038
174	-6.20252
175	-4.67707
176	-3.15445
177	-1.63483
178	-0.11814
179	1.39593
180	2.90779
181	4.41786
182	5.92647
183	7.43386
184	8.94009
185	10.4451
186	11.9488
187	13.4508
188	14.9508
189	16.4484
190	17.943
191	19.4342
192	20.9214
193	22.404
194	23.8813
195	25.3528
196	26.8179
197	28.2758
198	29.7258
199	31.1675
200	32.6
201	34.0227
202	35.435
203	36.8362
204	38.2257
205	39.6028
206	40.9669
207	42.3175
208	43.6539
209	44.9755
210	46.2819
211	47.5724
212	48.8467
213	50.1042
214	51.3445
215	52.5674
216	53.7724
217	54.9594
218	56.1282
219	57.2789
220	58.4114
221	59.526
222	60.623
223	61.7029
224	62.7662
225	63.8134
226	64.8448
227	65.8606
228	66.8607
229	67.8447
230	68.8121
231	69.7622
232	70.6946
233	71.6086
234	72.5039
235	73.3799
236	74.2359
237	75.0711
238	75.8843
239	76.6742
240	77.4395
241	78.1786
242	78.8906
243	79.5742
244	80.2287
245	80.8533
246	81.4478
247	82.012
248	82.5457
249	83.0493
250	83.5233
251	83.9684
252	84.3856
253	84.7759
254	85.1406
255	85.4811
256	85.7984
257	86.0932
258	86.366
259	86.6167
260	86.8452
261	87.0511
262	87.2342
263	87.3942
264	87.5311
265	87.6447
266	87.7345
267	87.7997
268	87.8393
269	87.8519
270	87.8358
271	87.7896
272	87.712
273	87.6019
274	87.4587
275	87.2818
276	87.071
277	86.8266
278	86.549
279	86.2389
280	85.8974
281	85.526
282	85.1262
283	84.7002
284	84.2499
285	83.7776
286	83.285
287	82.7737
288	82.2446
289	81.6981
290	81.1342
291	80.5531
292	79.9546
293	79.339
294	78.7064
295	78.0569
296	77.3904
297	76.7059
298	76.0025
299	75.2783
300	74.5317
301	73.7608
302	72.9641
303	72.1403
304	71.2886
305	70.4082
306	69.4991
307	68.5612
308	67.5949
309	66.601
310	65.5803
311	64.5342
312	63.4642
313	62.3719
314	61.2593
315	60.1283
316	58.9805
317	57.8174
318	56.6401
319	55.4493
320	54.2452
321	53.0284
322	51.7992
323	50.558
324	49.3054
325	48.0419
326	46.7675
327	45.4822
328	44.1855
329	42.8763
330	41.5539
331	40.2171
332	38.8653
333	37.4978
334	36.1141
335	34.7144
336	33.2986
337	31.8672
338	30.4208
339	28.96
340	27.4861
341	26
342	24.5032
343	22.9973
344	21.4837
345	19.9642
346	18.4402
347	16.9131
348	15.3839
349	13.8533
350	12.3221
351	10.7909
352	9.26005
353	7.73038
354	6.20252
355	4.67706
356	3.15444
357	1.63483
358	0.118136
359	-1.39594
360	-2.9078
Phase Current ib
0	77.4395
1	78.1786
2	78.8905
3	79.5741
4	80.2286
5	80.8533
6	81.4478
7	82.0119
8	82.5456
9	83.0493
10	83.5233
11	83.9684
12	84.3855
13	84.7758
14	85.1406
15	85.481
16	85.7983
17	86.0931
18	86.3659
19	86.6167
20	86.8452
21	87.0511
22	87.2341
23	87.3941
24	87.531
25	87.6446
26	87.7344
27	87.7997
28	87.8393
29	87.8518
30	87.8357
31	87.7895
32	87.7119
33	87.6019
34	87.4586
35	87.2817
36	87.071
37	86.8266
38	86.5489
39	86.2389
40	85.8974
41	85.5259
42	85.1262
43	84.7001
44	84.2499
45	83.7775
46	83.285
47	82.7737
48	82.2445
49	81.698
50	81.1342
51	80.553
52	79.9546
53	79.3389
54	78.7063
55	78.0569
56	77.3903
57	76.7059
58	76.0024
59	75.2783
60	74.5316
61	73.7607
62	72.9641
63	72.1403
64	71.2885
65	70.4082
66	69.499
67	68.5611
68	67.5949
69	66.6009
70	65.5803
71	64.5342
72	63.4641
73	62.3719
74	61.2593
75	60.1282
76	58.9805
77	57.8174
78	56.6401
79	55.4492
80	54.2452
81	53.0284
82	51.7991
83	50.558
84	49.3054
85	48.0418
86	46.7675
87	45.4822
88	44.1854
89	42.8763
90	41.5538
91	40.2171
92	38.8653
93	37.4977
94	36.1141
95	34.7144
96	33.2986
97	31.8672
98	30.4207
99	28.96
100	27.486
101	26
102	24.5032
103	22.9972
104	21.4837
105	19.9642
106	18.4402
107	16.9131
108	15.3838
109	13.8533
110	12.3221
111	10.7908
112	9.26003
113	7.73036
114	6.2025
115	4.67704
116	3.15442
117	1.63481
118	0.118118
119	-1.39595
120	-2.90782
121	-4.41788
122	-5.92649
123	-7.43388
124	-8.94011
125	-10.4451
126	-11.9488
127	-13.4508
128	-14.9508
129	-16.4484
130	-17.943
131	-19.4342
132	-20.9214
133	-22.404
134	-23.8813
135	-25.3529
136	-26.8179
137	-28.2758
138	-29.7259
139	-31.1675
140	-32.6
141	-34.0227
142	-35.435
143	-36.8362
144	-38.2257
145	-39.6028
146	-40.967
147	-42.3175
148	-43.6539
149	-44.9756
150	-46.2819
151	-47.5724
152	-48.8467
153	-50.1042
154	-51.3446
155	-52.5674
156	-53.7724
157	-54.9594
158	-56.1282
159	-57.2789
160	-58.4114
161	-59.526
162	-60.623
163	-61.7029
164	-62.7662
165	-63.8134
166	-64.8448
167	-65.8606
168	-66.8607
169	-67.8447
170	-68.8121
171	-69.7622
172	-70.6946
173	-71.6086
174	-72.5039
175	-73.3799
176	-74.2359
177	-75.0711
178	-75.8843
179	-76.6742
180	-77.4395
181	-78.1787
182	-78.8906
183	-79.5742
184	-80.2287
185	-80.8534
186	-81.4479
187	-82.012
188	-82.5457
189	-83.0494
190	-83.5234
191	-83.9684
192	-84.3856
193	-84.7759
194	-85.1406
195	-85.4811
196	-85.7984
197	-86.0932
198	-86.366
199	-86.6167
200	-86.8452
201	-87.0511
202	-87.2342
203	-87.3942
204	-87.5311
205	-87.6447
206	-87.7345
207	-87.7998
208	-87.8394
209	-87.8519
210	-87.8358
211	-87.7896
212	-87.712
213	-87.602
214	-87.4587
215	-87.2818
216	-87.071
217	-86.8266
218	-86.549
219	-86.2389
220	-85.8974
221	-85.526
222	-85.1262
223	-84.7002
224	-84.2499
225	-83.7776
226	-83.285
227	-82.7737
228	-82.2446
229	-81.6981
230	-81.1342
231	-80.5531
232	-79.9546
233	-79.339
234	-78.7064
235	-78.0569
236	-77.3904
237	-76.7059
238	-76.0025
239	-75.2783
240	-74.5317
241	-73.7608
242	-72.9641
243	-72.1403
244	-71.2886
245	-70.4082
246	-69.4991
247	-68.5612
248	-67.5949
249	-66.601
250	-65.5803
251	-64.5342
252	-63.4642
253	-62.3719
254	-61.2593
255	-60.1283
256	-58.9805
257	-57.8174
258	-56.6401
259	-55.4493
260	-54.2452
261	-53.0284
262	-51.7992
263	-50.558
264	-49.3054
265	-48.0419
266	-46.7675
267	-45.4822
268	-44.1855
269	-42.8763
270	-41.5539
271	-40.2171
272	-38.8653
273	-37.4978
274	-36.1142
275	-34.7144
276	-33.2986
277	-31.8672
278	-30.4208
279	-28.96
280	-27.4861
281	-26
282	-24.5032
283	-22.9973
284	-21.4837
285	-19.9642
286	-18.4402
287	-16.9131
288	-15.3839
289	-13.8533
290	-12.3221
291	-10.7909
292	-9.26005
293	-7.73038
294	-6.20252
295	-4.67706
296	-3.15444
297	-1.63483
298	-0.118139
299	1.39593
300	2.9078
301	4.41786
302	5.92648
303	7.43386
304	8.94009
305	10.4451
306	11.9488
307	13.4508
308	14.9508
309	16.4484
310	17.943
311	19.4342
312	20.9214
313	22.404
314	23.8813
315	25.3528
316	26.8179
317	28.2758
318	29.7258
319	31.1675
320	32.6
321	34.0227
322	35.435
323	36.8362
324	38.2257
325	39.6028
326	40.9669
327	42.3175
328	43.6539
329	44.9755
330	46.2819
331	47.5724
332	48.8467
333	50.1042
334	51.3445
335	52.5674
336	53.7724
337	54.9594
338	56.1282
339	57.2789
340	58.4114
341	59.526
342	60.623
343	61.7029
344	62.7662
345	63.8134
346	64.8448
347	65.8606
348	66.8607
349	67.8447
350	68.8121
351	69.7622
352	70.6946
353	71.6086
354	72.5039
355	73.3799
356	74.2359
357	75.0711
358	75.8843
359	76.6742
360	77.4395
Phase Current ic
